Sample : 
Scan number: 3132

Wavelength: 532
Polarization :   
Power: 0
Mirror sp. : 8
Ch. duration : 6.264
Scan amplitude : 49.31



510163
228868
588936
1375721
1101154
1692857
1748618
1419426
1392121
548746
369628
233802
50328
31392
20507
7832
4042
4521
2266
649
918
488
170
148
127
54
40
52
29
23
25
15
16
14
8
10
15
25
12
13
11
14
5
11
12
9
8
8
9
4
7
4
6
9
7
6
11
11
20
42
30
26
46
31
17
28
19
22
29
21
31
35
29
42
31
25
12
17
11
9
8
8
9
3
7
6
9
9
5
9
16
8
11
23
25
22
19
14
17
25
36
46
36
62
61
65
90
92
124
168
188
234
402
576
749
1274
2377
3291
6085
13838
21742
37258
102876
242596
438504
1245108
1688346
1997662
2115999
1724059
1452846
954085
497621
320888
110257
38138
24702
12937
6898
4956
3265
1679
1017
652
339
225
187
96
63
61
46
37
33
25
12
14
14
12
16
7
9
10
16
11
6
6
7
15
4
15
4
11
7
6
7
10
9
6
13
6
12
21
21
34
29
33
24
23
22
19
29
21
22
26
25
27
32
33
35
28
19
21
9
17
7
8
7
9
12
8
11
8
9
8
8
13
14
15
14
25
18
22
19
24
19
32
40
55
40
52
62
78
73
106
133
164
261
293
444
657
916
1505
2467
3982
7334
13992
23963
47531
109687
235670
565657
1272048
1722435
2060752
2112086
1773813
