Sample : 
Scan number: 2277

Wavelength: 532
Polarization :   
Power: 0
Mirror sp. : 8
Ch. duration : 4.554
Scan amplitude : 49.31



331872
220619
372417
637256
512863
664010
387901
286029
198822
34006
15625
8703
2096
1011
868
332
185
197
123
51
70
49
33
33
27
20
12
17
12
11
10
10
9
15
6
4
12
9
19
15
7
22
7
15
23
8
17
12
17
14
16
26
33
38
68
93
110
134
177
200
183
175
164
145
111
103
138
139
149
194
186
181
183
153
111
74
64
42
28
23
30
19
25
15
18
13
11
15
10
13
15
14
5
13
18
12
8
14
10
16
10
17
11
16
15
14
22
28
24
31
47
66
88
141
193
335
574
900
1445
3709
6965
11419
33314
89735
157435
359835
557150
675782
761825
649050
526248
300868
119226
63966
21226
6490
3698
1752
728
453
306
159
113
94
69
39
32
37
19
30
19
10
19
10
6
6
14
10
9
10
5
9
10
16
11
11
11
17
22
12
15
15
13
18
14
21
30
30
26
39
68
92
98
148
154
213
196
194
145
146
118
109
96
133
140
165
198
194
192
173
129
95
72
53
35
37
19
21
20
19
14
8
15
21
19
18
14
13
13
8
16
12
11
10
9
16
12
11
14
7
13
15
20
26
26
34
41
25
69
105
135
191
247
424
714
1293
2251
4428
9489
20023
43447
115145
250320
413357
612431
735517
